Current (mA),Time (ms)
Current (mA),Time (ms)
0.000,2774.000
0.371,16893.000
0.513,21127.000
0.571,25322.000
0.556,29566.000
0.531,33812.000
0.513,38049.000
0.506,42218.000
0.505,46376.000
0.505,50625.000
0.509,54860.000
0.513,59078.000
0.515,63313.000
0.519,67544.000
0.520,71743.000
0.520,75902.000
0.522,80119.000
0.523,84341.000
0.522,88565.000
0.523,92772.000
0.524,97039.000
0.524,101258.000
0.527,105441.000
0.526,109635.000
0.527,113915.000
0.529,118126.000
0.529,122363.000
0.530,126589.000
0.531,130827.000
0.531,134997.000
0.528,139189.000
0.527,143425.000
0.525,147633.000
0.526,151889.000
0.525,156003.000
0.524,160144.000
0.529,164280.000
0.532,168429.000
0.531,172677.000
0.533,176898.000
0.536,181124.000
0.540,185364.000
0.542,189616.000
0.544,193776.000
0.546,197942.000
0.550,202126.000
0.551,206215.000
0.555,210366.000
0.561,214589.000
0.565,218713.000
0.566,222819.000
0.574,226959.000
0.574,231153.000
0.573,235320.000
0.581,239515.000
0.583,243713.000
0.583,247875.000
0.585,252019.000
0.592,256168.000
0.591,260357.000
0.593,264620.000
0.595,268842.000
0.601,273074.000
0.602,277311.000
0.610,281549.000
0.608,285751.000
0.622,289954.000
0.620,294177.000
0.625,298434.000
0.625,302657.000
0.629,306872.000
0.631,311113.000
0.631,315342.000
0.633,319558.000
0.635,323748.000
0.637,327856.000
0.646,331947.000
0.650,336157.000
0.652,340395.000
0.653,344611.000
0.651,348862.000
0.653,353066.000
0.658,357277.000
0.661,361472.000
0.660,365714.000
0.665,369902.000
0.670,374157.000
0.670,378402.000
0.670,382661.000
0.672,386872.000
0.675,391093.000
0.680,395323.000
0.678,399537.000
0.685,403783.000
0.699,407974.000
0.694,412217.000
0.696,416457.000
0.695,420685.000
0.695,424923.000
0.697,429130.000
0.701,433378.000
0.707,437597.000
0.705,441829.000
0.710,446076.000
0.707,450295.000
0.716,454536.000
0.714,458772.000
0.716,463008.000
0.717,467189.000
0.719,471417.000
0.720,475664.000
0.722,479913.000
0.724,484169.000
0.731,488393.000
0.736,492505.000
0.735,496599.000
0.741,500701.000
0.743,504902.000
0.746,509099.000
0.753,513311.000
0.755,517563.000
0.756,521772.000
0.757,525981.000
0.758,530165.000
0.763,534402.000
0.762,538622.000
0.766,542875.000
0.786,547096.000
0.788,551336.000
0.790,555551.000
0.796,559801.000
0.796,564022.000
0.797,568240.000
0.805,572503.000
0.808,576723.000
0.809,580987.000
0.812,585222.000
0.815,589462.000
0.820,593690.000
0.823,597927.000
0.824,602174.000
0.831,606421.000
0.833,610651.000
0.837,614897.000
0.840,619130.000
0.842,623365.000
0.846,627586.000
0.848,631833.000
0.854,636063.000
0.856,640304.000
0.859,644558.000
0.857,648791.000
0.861,653006.000
0.869,657247.000
0.869,661504.000
0.876,665614.000
0.890,669721.000
0.890,673884.000
0.895,678114.000
0.897,682333.000
0.903,686572.000
0.900,690799.000
0.915,695021.000
0.912,699235.000
0.913,703476.000
0.914,707690.000
0.920,711932.000
0.922,716149.000
0.924,720413.000
0.927,724668.000
0.930,728881.000
0.933,733086.000
0.934,737327.000
0.944,741576.000
0.943,745816.000
0.947,750055.000
0.951,754317.000
0.954,758540.000
0.964,762760.000
0.962,767025.000
0.963,771255.000
0.968,775474.000
0.976,779704.000
0.980,783933.000
0.981,788175.000
0.981,792389.000
0.989,796630.000
0.993,800855.000
0.998,805096.000
0.997,809325.000
1.003,813585.000
1.005,817817.000
1.010,822053.000
1.016,826311.000
1.020,830532.000
1.022,834665.000
1.023,838768.000
1.024,842894.000
1.027,847122.000
1.033,851350.000
1.048,855581.000
1.051,859809.000
1.057,864025.000
1.062,868233.000
1.064,872459.000
1.065,876678.000
1.068,880895.000
1.075,885122.000
1.078,889325.000
1.084,893583.000
1.090,897818.000
1.090,902035.000
1.092,906252.000
1.093,910485.000
1.100,914735.000
1.104,918953.000
1.107,923191.000
1.114,927398.000
1.117,931645.000
1.119,935874.000
1.124,940106.000
1.169,944355.000
1.189,948604.000
1.195,952837.000
1.157,957078.000
1.209,961316.000
1.195,965557.000
1.252,969803.000
1.247,974045.000
1.337,978247.000
1.350,982454.000
1.362,986698.000
1.353,990943.000
1.340,995166.000
1.324,999406.000
1.331,1003599.000
1.379,1007698.000
1.396,1011800.000
1.406,1016022.000
1.487,1020228.000
1.517,1024475.000
1.524,1028682.000
1.551,1032894.000
1.545,1037097.000
1.546,1041317.000
1.557,1045535.000
1.576,1049792.000
1.614,1054052.000
1.661,1058282.000
1.667,1062521.000
1.642,1066731.000
1.665,1070964.000
1.672,1075184.000
1.685,1079407.000
1.722,1083596.000
1.795,1087830.000
1.853,1092067.000
1.908,1096316.000
1.949,1100496.000
1.893,1104721.000
1.925,1108942.000
1.958,1113180.000
1.982,1117411.000
1.996,1121640.000
2.084,1125893.000
2.116,1130100.000
2.208,1134331.000
2.301,1138579.000
2.295,1142815.000
2.311,1147053.000
2.323,1151274.000
2.447,1155498.000
2.458,1159743.000
2.510,1163951.000
2.528,1168170.000
2.563,1172399.000
2.648,1176513.000
2.700,1180620.000
2.763,1184809.000
2.776,1189050.000
2.784,1193267.000
2.752,1197508.000
2.829,1201759.000
2.874,1205975.000
2.896,1210233.000
2.942,1214438.000
2.929,1218668.000
2.965,1222899.000
2.956,1227131.000
2.931,1231359.000
2.970,1235596.000
3.071,1239834.000
3.156,1244060.000
3.214,1248305.000
3.232,1252536.000
3.279,1256788.000
3.366,1261003.000
3.512,1265227.000
3.528,1269473.000
3.523,1273711.000
3.617,1277933.000
3.555,1282161.000
3.636,1286393.000
3.668,1290656.000
3.690,1294907.000
3.693,1299173.000
3.749,1303406.000
3.847,1307631.000
4.009,1311876.000
4.098,1316107.000
4.213,1320349.000
4.277,1324589.000
4.326,1328840.000
4.386,1333088.000
4.461,1337333.000
4.405,1341603.000
4.515,1345713.000
4.536,1349817.000
4.396,1353971.000
4.389,1358203.000
4.473,1362443.000
4.515,1366668.000
4.698,1370808.000
4.761,1375037.000
4.848,1379278.000
4.920,1383509.000
4.882,1387732.000
4.951,1391940.000
4.999,1396155.000
4.907,1400340.000
4.935,1404573.000
4.932,1408807.000
5.069,1413051.000
