Current (mA),Time (ms)
Current (mA),Time (ms)
0.000,2822.000
0.019,17006.000
0.028,21261.000
0.035,25501.000
0.040,29767.000
0.045,34023.000
0.050,38275.000
0.065,42538.000
0.105,46787.000
0.221,51041.000
0.380,55302.000
0.512,59581.000
0.634,63851.000
0.873,68106.000
1.036,72378.000
1.256,76648.000
1.503,80915.000
1.757,85156.000
1.960,89385.000
2.289,93664.000
2.844,97908.000
3.227,102165.000
3.511,106411.000
4.084,110680.000
4.713,114921.000
5.500,119174.000
