Current (mA),Time (ms)
0.0,2767.0
1.988,16891.0
1.752,21056.0
1.888,25200.0
1.885,29333.0
1.839,33549.0
1.794,37770.0
1.762,41983.0
1.751,46197.0
1.743,50410.0
1.74,54593.0
1.744,58743.0
1.738,62934.0
1.734,67168.0
1.73,71395.0
1.729,75592.0
1.722,79809.0
1.73,84016.0
1.731,88161.0
1.72,92346.0
1.705,96547.0
1.694,100756.0
1.69,104984.0
1.697,109203.0
1.682,113379.0
1.645,117545.0
1.831,121754.0
1.961,125977.0
2.5,130169.0
2.809,134378.0
3.082,138576.0
3.06,142803.0
5.076,146969.0
