Current (mA),Time (ms)
0.0,2814.0
0.017,16902.0
0.026,21045.0
0.033,25204.0
0.039,29426.0
0.043,33616.0
0.047,37817.0
0.05,42043.0
0.054,46245.0
0.065,50406.0
0.13,54533.0
0.2,58683.0
0.238,62836.0
0.382,67034.0
0.442,71210.0
0.548,75397.0
0.668,79572.0
0.851,83741.0
0.951,87899.0
1.14,92243.0
1.329,96433.0
1.708,100617.0
1.981,104823.0
2.483,109053.0
2.759,113246.0
3.209,117467.0
3.577,121668.0
4.072,125874.0
4.535,130071.0
5.141,134281.0
