Current (mA),Time (ms)
Current (mA),Time (ms)
0.000,2719.000
2.303,16734.000
1.809,20856.000
1.771,24971.000
1.661,29094.000
1.592,33164.000
1.562,37237.000
1.541,41333.000
1.544,45450.000
1.564,49577.000
1.580,53695.000
1.600,57826.000
1.628,61906.000
2.122,65996.000
2.147,70115.000
2.211,74244.000
2.243,78387.000
2.271,82487.000
3.252,86601.000
3.771,90698.000
4.239,94779.000
4.106,98892.000
4.846,103022.000
8.754,107146.000
