Current (mA),Time (ms)
Current (mA),Time (ms)
0.000,2766.000
0.398,16877.000
0.650,21072.000
0.715,25264.000
0.654,29444.000
0.572,33587.000
0.530,37786.000
0.569,41968.000
0.576,46163.000
0.583,50386.000
0.663,54605.000
0.661,58776.000
0.739,62913.000
1.036,67113.000
1.130,71393.000
1.702,75621.000
1.989,79853.000
2.325,84029.000
2.351,88237.000
2.903,92375.000
3.612,96556.000
4.020,100770.000
4.219,104993.000
4.642,109207.000
4.575,113408.000
4.521,117639.000
5.010,121773.000
